# f [hz]  SPL_Th [dB] SPL_L [dB] SPL [dB] 
158.333333 79.440205 77.040075 84.343380
316.666667 60.367988 44.805805 61.707044
475.000000 34.350516 21.805940 36.190348
633.333333 24.193114 1.684769 24.820616
791.666667 -0.539634 -17.282953 0.640195
950.000000 -11.951926 -35.601779 -11.399298
1108.333333 -44.845874 -53.424353 -42.095899
1266.666667 -48.443872 -70.779539 -47.804223
1425.000000 -55.698051 -87.648227 -55.481342
1583.333333 -63.018665 -104.001466 -62.941442
