# f [hz]  SPL_Th [dB] SPL_L [dB] SPL [dB] 
158.333333 15.424243 20.793292 24.537776
316.666667 -59.624938 -71.572059 -57.667841
475.000000 -144.384336 -154.995487 -142.140669
633.333333 -217.654833 -235.375910 -216.593258
791.666667 -291.442206 -314.318718 -290.839864
950.000000 -382.524576 -392.283091 -380.079322
1108.333333 -444.497644 -469.400557 -444.017244
1266.666667 -532.674456 -545.719973 -530.928043
1425.000000 -599.159282 -621.297503 -598.505466
1583.333333 -665.332367 -696.221291 -665.087888
