# f [hz]  SPL_Th [dB] SPL_L [dB] SPL [dB] 
158.333333 13.705691 22.470100 25.170009
316.666667 -59.937875 -70.055467 -57.579361
475.000000 -139.492409 -153.689856 -137.944747
633.333333 -229.173753 -234.132674 -225.283426
791.666667 -289.973044 -313.027549 -289.382514
950.000000 -368.801492 -390.875507 -368.143004
1108.333333 -449.508256 -467.842060 -448.515011
1266.666667 -518.939109 -544.006451 -518.467477
1425.000000 -606.079344 -619.448382 -604.390967
1583.333333 -672.012129 -694.267996 -671.366790
