# f [hz]  SPL_Th [dB] SPL_L [dB] SPL [dB] 
158.333333 15.015458 7.771188 18.148238
316.666667 -59.647884 -79.008795 -58.759949
475.000000 -142.714729 -161.502553 -141.769416
633.333333 -219.123160 -241.589941 -218.492755
791.666667 -290.577992 -320.311453 -290.299281
950.000000 -390.458023 -398.035231 -387.424715
1108.333333 -444.221559 -474.897608 -443.971101
1266.666667 -527.084744 -550.975453 -526.546771
1425.000000 -604.308445 -626.351413 -603.647687
1583.333333 -664.486957 -701.126348 -664.359997
