Theta [deg] SPL_Th [dB] SPL_L [dB] SPL [dB] 
168.749997 13.243776 9.459084 17.576557
168.749997 -60.102565 -77.419748 -58.993556
168.749997 -138.804457 -160.063503 -138.083812
168.749997 -243.362850 -240.180984 -235.606424
168.749997 -290.384638 -318.842939 -290.062661
168.749997 -366.776823 -396.453589 -366.496316
168.749997 -457.154233 -473.181103 -455.880063
168.749997 -518.244656 -549.128786 -518.000044
168.749997 -600.519172 -624.396527 -599.980397
168.749997 -677.746803 -699.091474 -677.032944
