# f [hz]  SPL_Th [dB] SPL_L [dB] SPL [dB] 
158.333333 79.183064 56.372639 79.789850
316.666667 60.676489 27.110477 60.856790
475.000000 31.948485 7.368155 32.446551
633.333333 24.769035 -12.065203 24.893199
791.666667 -5.070423 -30.696867 -4.627456
950.000000 -10.728618 -48.670969 -10.619232
1108.333333 -51.050800 -66.073047 -49.632518
1266.666667 -49.485794 -82.933527 -49.303047
1425.000000 -62.027116 -99.263556 -61.908532
1583.333333 -61.773757 -115.079895 -61.755005
