# f [hz]  SPL_Th [dB] SPL_L [dB] SPL [dB] 
158.333333 61.711288 63.353328 68.591653
316.666667 29.109859 15.399594 30.738923
475.000000 -33.867531 -23.533278 -21.225796
633.333333 -37.878020 -59.549470 -37.189502
791.666667 -79.676367 -94.283781 -78.194309
950.000000 -104.297077 -128.200051 -103.759841
1108.333333 -143.637782 -161.421680 -142.583411
1266.666667 -180.846308 -193.965681 -179.113301
1425.000000 -197.942736 -225.833280 -197.599434
1583.333333 -220.717835 -257.052324 -220.586373
