Theta [deg] SPL_Th [dB] SPL_L [dB] SPL [dB] 
168.750006 -11.112252 -31.457188 -10.315196
168.750006 -121.943249 -149.347407 -121.580582
168.750006 -229.025078 -262.274206 -228.838150
168.750006 -338.459237 -373.159185 -338.300802
168.750006 -441.299172 -482.890712 -441.227155
168.750006 -563.679448 -591.734892 -563.342479
168.750006 -647.781535 -699.851255 -647.759918
168.750006 -751.931795 -807.500467 -751.917340
168.750006 -841.610126 -915.212109 -841.608311
168.750006 -942.884690 -1024.320063 -942.883953
