# f [hz]  SPL_Th [dB] SPL_L [dB] SPL [dB] 
158.333333 13.243776 9.459084 17.576557
316.666667 -60.102565 -77.419748 -58.993556
475.000000 -138.804457 -160.063503 -138.083812
633.333333 -243.362850 -240.180984 -235.606424
791.666667 -290.384638 -318.842939 -290.062661
950.000000 -366.776823 -396.453589 -366.496316
1108.333333 -457.154233 -473.181103 -455.880063
1266.666667 -518.244656 -549.128786 -518.000044
1425.000000 -600.519172 -624.396527 -599.980397
1583.333333 -677.746803 -699.091474 -677.032944
