# Theta [deg] SPL_Th [dB] SPL_L [dB] SPL [dB] 
168.749997 -12.504278 -29.825029 -11.395697
168.749997 -119.576390 -148.085435 -119.256254
168.749997 -238.259653 -261.169623 -237.659549
168.749997 -331.955818 -372.035633 -331.870177
168.749997 -454.243954 -481.647027 -453.881243
168.749997 -546.370792 -590.318940 -546.315834
168.749997 -664.571914 -698.253789 -664.393978
168.749997 -747.386620 -805.747539 -747.376136
168.749997 -855.182116 -913.351452 -855.171399
168.749997 -941.326120 -1022.421868 -941.325355
