# Theta [deg] SPL_Th [dB] SPL_L [dB] SPL [dB] 
168.749997 -5.674252 -46.594711 -5.596476
168.749997 -91.672408 -107.444664 -90.363055
168.749997 -181.967402 -201.545071 -181.100295
168.749997 -282.167618 -293.901916 -280.167164
168.749997 -363.337205 -384.846500 -362.636222
168.749997 -448.154963 -474.716006 -447.756164
168.749997 -544.618935 -563.737583 -543.707159
168.749997 -630.669646 -652.079889 -629.960944
168.749997 -716.592249 -739.877230 -716.016681
168.749997 -816.416391 -827.237382 -814.220050
