Theta [deg] SPL_Th [dB] SPL_L [dB] SPL [dB] 
171.730040 -47.422946 -66.022728 -46.458052
171.730040 -173.137270 -205.448953 -172.929291
171.730040 -305.292922 -338.466298 -305.104374
171.730040 -422.348906 -468.055983 -422.303997
171.730040 -548.527641 -595.721540 -548.489782
171.730040 -667.811407 -722.288293 -667.795018
171.730040 -791.383027 -848.366012 -791.370743
171.730040 -910.956860 -974.660975 -910.951192
171.730040 -1040.822623 -1102.761969 -1040.815678
171.730040 -1150.096178 -1255.744033 -1150.096132
