Theta [deg] SPL_Th [dB] SPL_L [dB] SPL [dB] 
175.976089 -85.200372 -114.719999 -84.914827
175.976089 -264.137501 -297.916887 -263.961531
175.976089 -455.995200 -474.482205 -455.018380
175.976089 -602.314514 -647.606605 -602.267413
175.976089 -766.359487 -818.796469 -766.338764
175.976089 -937.171896 -988.874034 -937.149346
175.976089 -1101.781474 -1158.442319 -1101.768726
175.976089 -1256.931259 -1328.184186 -1256.928881
175.976089 -1421.432783 -1499.571572 -1421.431707
175.976089 -1595.791024 -1686.556636 -1595.790773
