# Theta [deg] SPL_Th [dB] SPL_L [dB] SPL [dB] 
123.750005 79.183064 56.372639 79.789850
123.750005 60.676489 27.110477 60.856790
123.750005 31.948485 7.368155 32.446551
123.750005 24.769035 -12.065203 24.893199
123.750005 -5.070423 -30.696867 -4.627456
123.750005 -10.728618 -48.670969 -10.619232
123.750005 -51.050800 -66.073047 -49.632518
123.750005 -49.485794 -82.933527 -49.303047
123.750005 -62.027116 -99.263556 -61.908532
123.750005 -61.773757 -115.079895 -61.755005
