Theta [deg] SPL_Th [dB] SPL_L [dB] SPL [dB] 
172.005054 -45.596960 -70.827756 -45.133890
172.005054 -186.050618 -212.427392 -185.643466
172.005054 -303.601133 -347.488155 -303.545788
172.005054 -432.777511 -479.116740 -432.735746
172.005054 -567.490711 -608.818989 -567.416487
172.005054 -680.793182 -737.419813 -680.780384
172.005054 -813.055272 -865.528931 -813.034637
172.005054 -931.051852 -993.850996 -931.045561
172.005054 -1079.648864 -1123.964714 -1079.596177
172.005054 -1165.936606 -1277.576983 -1165.936583
