# BPF [hz]  SPL_Th [dB] SPL_L [dB] SPL [dB] 
116.666667 53.690434 62.996467 65.554946
233.333333 19.829697 13.343899 23.199208
350.000000 -26.515364 -27.889541 -21.154705
466.666667 -53.420867 -66.241438 -51.633047
583.333333 -88.894584 -103.224689 -87.368435
700.000000 -127.682649 -139.289323 -125.655787
816.666667 -157.944908 -174.572283 -156.750267
933.333333 -215.271395 -209.122604 -205.643300
1050.000000 -225.028896 -242.985954 -223.994145
1166.666667 -261.086030 -276.232810 -259.686395
