Theta [deg] SPL_Th [dB] SPL_L [dB] SPL [dB] 
171.524557 -43.611215 -65.756723 -42.957928
171.524557 -172.140661 -203.787156 -171.916340
171.524557 -293.910122 -335.336919 -293.836731
171.524557 -430.199636 -463.456269 -430.012867
171.524557 -536.564375 -589.650876 -536.545144
171.524557 -665.048886 -714.746400 -665.020492
171.524557 -780.578723 -839.353548 -780.568728
171.524557 -905.868222 -964.180579 -905.857680
171.524557 -1018.883609 -1090.824943 -1018.881413
171.524557 -1158.506601 -1243.686075 -1158.506123
