Theta [deg] SPL_Th [dB] SPL_L [dB] SPL [dB] 
168.750006 -11.732463 -31.485651 -10.881880
168.750006 -119.908776 -152.435837 -119.705831
168.750006 -230.799896 -267.026855 -230.666809
168.750006 -333.301781 -378.208700 -333.252550
168.750006 -437.227687 -487.478047 -437.201041
168.750006 -544.053573 -595.661426 -544.030777
168.750006 -643.458249 -703.377570 -643.449486
168.750006 -751.174160 -811.362303 -751.165664
168.750006 -852.796889 -921.355245 -852.793647
168.750006 -949.610827 -1052.133943 -949.610762
