Theta [deg] SPL_Th [dB] SPL_L [dB] SPL [dB] 
123.750005 76.115943 39.934007 76.249716
123.750005 -4.895827 0.200695 4.041595
123.750005 23.077088 -26.270947 23.106646
123.750005 -0.830026 -53.427370 -0.809682
123.750005 -48.179037 -81.105296 -47.985107
123.750005 -50.854065 -111.890919 -50.846360
123.750005 -56.394111 -140.616675 -56.393577
123.750005 -75.891294 -150.027793 -75.889589
123.750005 -99.263162 -166.256877 -99.259281
123.750005 -106.721480 -183.769671 -106.720260
