Theta [deg] SPL_Th [dB] SPL_L [dB] SPL [dB] 
11.249998 -10.811686 -18.559999 -7.828464
11.249998 -122.907672 -139.698333 -121.733842
11.249998 -228.156173 -252.610460 -227.651035
11.249998 -342.664331 -362.967288 -341.863587
11.249998 -441.574045 -471.732964 -441.308455
11.249998 -567.256264 -579.035095 -565.264952
11.249998 -647.331256 -684.934251 -647.217541
11.249998 -744.763416 -789.619866 -744.713899
11.249998 -845.463351 -893.366679 -845.428455
11.249998 -939.644675 -996.430849 -939.632109
